#   1 NUMBER                 Running object number                                     
#   2 X_IMAGE                Object position along x                                    [pixel]
#   3 Y_IMAGE                Object position along y                                    [pixel]
#   4 ALPHA_J2000            Right ascension of barycenter (J2000)                      [deg]
#   5 DELTA_J2000            Declination of barycenter (J2000)                          [deg]
#   6 MAG_AUTO               Kron-like elliptical aperture magnitude                    [mag]
#   7 MAGERR_AUTO            RMS error for AUTO magnitude                               [mag]
#   8 A_IMAGE                Profile RMS along major axis                               [pixel]
#   9 B_IMAGE                Profile RMS along minor axis                               [pixel]
#  10 THETA_IMAGE            Position angle (CCW/x)                                     [deg]
#  11 FWHM_IMAGE             FWHM assuming a gaussian core                              [pixel]
#  12 ELLIPTICITY            1 - B_IMAGE/A_IMAGE                                       
#  13 FLAGS                  Extraction flags                                          
#  14 CLASS_STAR             S/G classifier output                                     
#  15 CXX_IMAGE              Cxx object ellipse parameter                               [pixel**(-2)]
#  16 CYY_IMAGE              Cyy object ellipse parameter                               [pixel**(-2)]
#  17 CXY_IMAGE              Cxy object ellipse parameter                               [pixel**(-2)]
#  18 KRON_RADIUS            Kron apertures in units of A or B                         
#  19 MAG_APER               Fixed aperture magnitude vector                            [mag]
#  24 MAGERR_APER            RMS error vector for fixed aperture mag.                   [mag]
#  29 MAG_ISO                Isophotal magnitude                                        [mag]
#  30 MAGERR_ISO             RMS error for isophotal magnitude                          [mag]
#  31 MAG_ISOCOR             Corrected isophotal magnitude                              [mag]
#  32 MAGERR_ISOCOR          RMS error for corrected isophotal magnitude                [mag]
         1    563.157    563.170  92.4885750 +79.9258980  11.8865   0.0000    79.169    75.395  26.2    12.93    0.048  22  0.03 1.6273375e-04 1.7273430e-04 -1.2960476e-05  3.30  16.4521  16.1342  16.0004  15.1483  14.7887   0.0002   0.0002   0.0002   0.0001   0.0001  11.8720   0.0000  11.8535   0.0001
         2    559.414      4.750  92.5776252 +79.9153516  20.2277   0.0102     9.837     3.810  44.1    30.47    0.613  26  0.00 3.8646460e-02 4.0577244e-02 -5.8525465e-02  7.72  24.2521  23.9358  23.7965  22.8937  22.5595   0.0247   0.0217   0.0204   0.0141   0.0127  21.6311   0.0105  21.2873   0.0223
         3    528.954      3.907  92.5815031 +79.9162770  19.8308   0.0083    14.700     6.002 -15.4    56.39    0.592  26  0.00 6.2613250e-03 2.6122725e-02 1.1852278e-02  5.85  24.7116  24.3656  24.2358  23.2424  22.8492   0.0374   0.0319   0.0300   0.0190   0.0159  20.5648   0.0064  20.2212   0.0137
         4    161.354     15.947  92.6248359 +79.9278672  18.9585   0.0010     2.741     2.668  85.6     5.44    0.027  16  0.62 1.4041965e-01 1.3311011e-01 -1.1359102e-03  3.30  20.2901  20.0279  19.9109  19.2976  19.1211   0.0013   0.0012   0.0011   0.0009   0.0009  18.9476   0.0011  18.9369   0.0013
         5    286.117    887.086  92.4711210 +79.9406484  20.9190   0.0081     3.469     2.817  80.3     6.89    0.188   0  0.03 1.2476412e-01 8.4340841e-02 -1.4295692e-02  4.61  22.7709  22.4641  22.3594  21.6335  21.3798   0.0071   0.0063   0.0060   0.0048   0.0047  21.0315   0.0054  20.9457   0.0089
         6    866.118    722.834  92.4260625 +79.9195621  17.2866   0.0004     5.105     4.538 -81.2     5.39    0.111   2  0.85 4.8316911e-02 3.8614098e-02 3.0742809e-03  3.30  18.6578  18.3826  18.2748  17.6642  17.4912   0.0006   0.0005   0.0005   0.0004   0.0003  17.2642   0.0006  17.2458   0.0007
         7    509.481    795.756  92.4582095 +79.9319936  16.5908   0.0003     4.274     4.080  80.3     5.43    0.045   2  0.85 5.9923515e-02 5.4887112e-02 -1.7757855e-03  3.30  17.9617  17.6944  17.5941  16.9706  16.7955   0.0004   0.0004   0.0004   0.0003   0.0002  16.5642   0.0003  16.5586   0.0003
         8    589.978    715.328  92.4611121 +79.9279689  16.4696   0.0002     3.438     3.254  89.8     5.47    0.054   2  0.96 9.4469801e-02 8.4613129e-02 -6.3806176e-05  3.62  17.8600  17.5780  17.4701  16.8538  16.6749   0.0004   0.0003   0.0003   0.0003   0.0002  16.4604   0.0002  16.4586   0.0003
         9    596.980    979.304  92.4182885 +79.9327805  19.3895   0.0016     3.218     2.689  75.5     5.51    0.164   0  0.14 1.3566381e-01 9.9185437e-02 -2.0258779e-02  3.40  20.7538  20.4776  20.3760  19.7600  19.5853   0.0018   0.0016   0.0015   0.0012   0.0012  19.3821   0.0016  19.3628   0.0020
        10    957.554    865.164  92.3922555 +79.9194390  19.6659   0.0020     2.893     2.782 -79.7     5.45    0.038   0  0.20 1.2885426e-01 1.1977883e-01 3.4153445e-03  3.69  21.0258  20.7513  20.6405  20.0233  19.8465   0.0021   0.0018   0.0018   0.0014   0.0014  19.6693   0.0019  19.6455   0.0025
        11     94.490    656.095  92.5314249 +79.9421705  20.2604   0.0051     4.368     3.491  66.5     7.20    0.201   0  0.03 7.7358380e-02 5.7130251e-02 -2.1694789e-02  4.26  22.3522  22.0573  21.9511  21.1965  20.9258   0.0052   0.0046   0.0044   0.0034   0.0032  20.3681   0.0039  20.2905   0.0063
        12    175.621    653.295  92.5218854 +79.9396076  20.1494   0.0095     4.732     4.227 -88.9     7.53    0.107   0  0.01 5.5975430e-02 4.4661399e-02 4.4124253e-04  7.75  22.8654  22.5680  22.4601  21.7014  21.4238   0.0077   0.0068   0.0065   0.0051   0.0048  20.7947   0.0061  20.6111   0.0118
        13    206.938    561.088  92.5326866 +79.9368786  21.0563   0.0146     4.371     3.007  63.8     6.95    0.312   0  0.85 9.9272139e-02 6.3705891e-02 -4.6162076e-02  6.41  22.5095  22.2183  22.1202  21.4655  21.2722   0.0058   0.0052   0.0050   0.0042   0.0043  21.0568   0.0066  20.8929   0.0126
        14    909.413    552.071  92.4478710 +79.9149688  20.9498   0.0243     5.759     4.833  81.4    12.52    0.161   0  0.00 4.2520046e-02 3.0440634e-02 -3.7576174e-03  8.12  24.0357  23.7083  23.5710  22.6767  22.2937   0.0205   0.0178   0.0168   0.0117   0.0102  21.3042   0.0100  20.7594   0.0211
        15    983.748    495.376  92.4477621 +79.9115872  18.8099   0.0016     5.673     4.279  74.9     8.48    0.246   0  0.06 5.3024638e-02 3.2665793e-02 -1.1834659e-02  3.78  21.1146  20.8042  20.6786  19.8913  19.5904   0.0022   0.0019   0.0018   0.0013   0.0012  18.8346   0.0015  18.8012   0.0020
        16      6.391    810.353  92.5177375 +79.9478403  19.4859   0.0015     2.642     2.528  81.9     5.57    0.043  24  0.48 1.5623997e-01 1.4348537e-01 -3.7106436e-03  3.30  20.8513  20.5752  20.4639  19.8317  19.6462   0.0019   0.0017   0.0016   0.0013   0.0012  19.4849   0.0015  19.4727   0.0017
        17     92.299    285.403  92.5905878 +79.9351555  19.3810   0.0032     6.140     4.924  72.0     7.37    0.198   0  0.03 3.9848045e-02 2.7930263e-02 -8.6454786e-03  4.27  21.7404  21.4399  21.3343  20.5834  20.3087   0.0033   0.0029   0.0028   0.0021   0.0020  19.4889   0.0026  19.4112   0.0042
        18    256.389    239.967  92.5775942 +79.9292149  20.7100   0.0142     5.136     4.334 -68.3    10.38    0.156   2  0.00 5.1145587e-02 4.0000267e-02 1.0503569e-02  6.60  23.6159  23.2964  23.1667  22.3269  21.9790   0.0143   0.0125   0.0118   0.0086   0.0078  21.0915   0.0076  20.8361   0.0156
        19    501.046    218.402  92.5509245 +79.9212387  21.1593   0.0207     4.541     3.459 -87.6     7.10    0.238   0  0.82 8.3519459e-02 4.8553240e-02 2.9353020e-03  7.56  23.2499  22.9526  22.8269  22.1184  21.8717   0.0105   0.0093   0.0089   0.0072   0.0071  21.4931   0.0098  21.1487   0.0210
        20    439.134    201.040  92.5612894 +79.9228213  21.5291   0.0361     5.078     3.819  84.0    11.79    0.248   0  0.00 6.8252034e-02 3.9104734e-02 -6.2156026e-03  8.46  24.5301  24.2199  24.0917  23.2551  22.9089   0.0319   0.0280   0.0265   0.0195   0.0177  22.0953   0.0163  21.0684   0.0273
        21    276.955    167.159  92.5866154 +79.9271873  16.7895   0.0003     3.341     3.167 -81.0     5.44    0.052   2  0.82 9.9485129e-02 8.9860737e-02 3.1262967e-03  3.77  18.3635  18.0928  17.9792  17.3650  17.1852   0.0005   0.0004   0.0004   0.0003   0.0003  16.9592   0.0004  16.9540   0.0004
        22    269.177    161.842  92.5884163 +79.9273261  16.7297   0.0003     2.646     2.399  48.2     5.75    0.093   2  0.82 1.6001087e-01 1.5656111e-01 -3.0663919e-02  8.05  19.7719  19.4893  19.3745  18.7245  18.4900   0.0010   0.0009   0.0009   0.0007   0.0006  18.5016   0.0007  18.4971   0.0008
        23    728.656    165.289  92.5313904 +79.9131853  19.7698   0.0030     4.091     3.388  81.6     6.84    0.172   0  0.04 8.6536065e-02 6.0331129e-02 -7.8920154e-03  4.03  21.6607  21.3654  21.2684  20.5295  20.2724   0.0031   0.0028   0.0027   0.0020   0.0019  19.8111   0.0025  19.7680   0.0036
        24     20.974    104.018  92.6281673 +79.9338896  19.9165   0.0032     3.518     3.216  78.8     5.95    0.086   2  0.04 9.6080251e-02 8.1412636e-02 -6.0445862e-03  4.17  21.6084  21.3225  21.1991  20.5424  20.3265   0.0030   0.0027   0.0025   0.0021   0.0020  19.7294   0.0026  19.6718   0.0040
        25    735.247     70.801  92.5455581 +79.9111771  19.0414   0.0011     2.721     2.637  83.5     5.41    0.031   0  0.17 1.4367969e-01 1.3517100e-01 -1.9709696e-03  3.30  20.3817  20.0990  19.9872  19.3778  19.2014   0.0014   0.0013   0.0012   0.0009   0.0009  19.0316   0.0012  19.0205   0.0014
        26    103.843    943.179  92.4846078 +79.9473592  19.4312   0.0015     2.671     2.583  79.5     5.42    0.033   0  0.36 1.4957358e-01 1.4049384e-01 -3.4876997e-03  3.30  20.7739  20.4924  20.3811  19.7685  19.5920   0.0018   0.0016   0.0015   0.0012   0.0012  19.4282   0.0015  19.4144   0.0018
        27    147.522    901.566  92.4858572 +79.9452139  19.5933   0.0032     5.976     4.203  59.3     8.71    0.297   0  0.03 4.9131151e-02 3.5473008e-02 -2.5131114e-02  3.79  22.0309  21.7330  21.6175  20.8208  20.5184   0.0041   0.0036   0.0034   0.0025   0.0023  19.6676   0.0027  19.6004   0.0042
